"time","U@resistance","I@variable_resistance"
0,0,0
1E-07,0.00013111,-3.49322E-09
2E-07,0.00103846,-1.39402E-08
3E-07,0.00347241,-3.12434E-08
4E-07,0.008145,-5.52417E-08
5E-07,0.015721,-8.57124E-08
6E-07,0.0268095,-1.22374E-07
7E-07,0.0419558,-1.6489E-07
8E-07,0.0616345,-2.12871E-07
9E-07,0.0862438,-2.65882E-07
1E-06,0.1161,-3.23442E-07
1.1E-06,0.151433,-3.85036E-07
1.2E-06,0.192385,-4.50114E-07
1.3E-06,0.239007,-5.18102E-07
1.4E-06,0.291258,-5.88403E-07
1.5E-06,0.349005,-6.60408E-07
1.6E-06,0.412028,-7.33499E-07
1.7E-06,0.480017,-8.07055E-07
1.8E-06,0.552578,-8.80461E-07
1.9E-06,0.629238,-9.53112E-07
2E-06,0.709451,-1.02442E-06
2.1E-06,0.792601,-1.09381E-06
2.2E-06,0.878012,-1.16075E-06
2.3E-06,0.964953,-1.22473E-06
2.4E-06,1.05265,-1.28528E-06
2.5E-06,1.14029,-1.34196E-06
2.6E-06,1.22704,-1.39439E-06
2.7E-06,1.31204,-1.44224E-06
2.8E-06,1.39442,-1.48521E-06
2.9E-06,1.47333,-1.52307E-06
3E-06,1.5479,-1.55564E-06
3.1E-06,1.61732,-1.58279E-06
3.2E-06,1.68078,-1.60445E-06
3.3E-06,1.73751,-1.6206E-06
3.4E-06,1.78681,-1.63129E-06
3.5E-06,1.82802,-1.6366E-06
3.6E-06,1.86055,-1.63667E-06
3.7E-06,1.88387,-1.6317E-06
3.8E-06,1.89753,-1.62192E-06
3.9E-06,1.90117,-1.60761E-06
4E-06,1.8945,-1.58908E-06
4.1E-06,1.87735,-1.5667E-06
4.2E-06,1.84959,-1.54083E-06
4.3E-06,1.81124,-1.51188E-06
4.4E-06,1.76237,-1.48029E-06
4.5E-06,1.70317,-1.4465E-06
4.6E-06,1.6339,-1.41095E-06
4.7E-06,1.55493,-1.37411E-06
4.8E-06,1.4667,-1.33644E-06
4.9E-06,1.36974,-1.2984E-06
5E-06,1.26466,-1.26042E-06
5.1E-06,1.01481,0.0229695
5.2E-06,0.764836,0.0119397
5.3E-06,0.517079,0.000952832
5.4E-06,0.272587,-0.00997123
5.5E-06,0.032368,-0.0208132
5.6E-06,-0.202618,-0.0315549
5.7E-06,-0.431451,-0.0421786
5.8E-06,-0.65326,-0.0526677
5.9E-06,-0.867222,-0.0630065
6E-06,-1.07257,-0.0731805
6.1E-06,-1.26859,-0.0831759
6.2E-06,-1.45463,-0.0929803
6.3E-06,-1.63008,-0.102582
6.4E-06,-1.79442,-0.111971
6.5E-06,-1.94716,-0.121139
6.6E-06,-2.08789,-0.130077
6.7E-06,-2.21626,-0.138778
6.8E-06,-2.33199,-0.147238
6.9E-06,-2.43483,-0.155451
7E-06,-2.52463,-0.163415
7.1E-06,-2.60128,-0.171127
7.2E-06,-2.66473,-0.178587
7.3E-06,-2.71501,-0.185795
7.4E-06,-2.75218,-0.192753
7.5E-06,-2.77638,-0.199463
7.6E-06,-2.78779,-0.205927
7.7E-06,-2.78663,-0.212152
7.8E-06,-2.77321,-0.218143
7.9E-06,-2.74785,-0.223905
8E-06,-2.71093,-0.229446
8.1E-06,-2.66287,-0.234774
8.2E-06,-2.60414,-0.239897
8.3E-06,-2.53522,-0.244827
8.4E-06,-2.45666,-0.249571
8.5E-06,-2.36901,-0.254142
8.6E-06,-2.27287,-0.258551
8.7E-06,-2.16884,-0.262808
8.8E-06,-2.05757,-0.266927
8.9E-06,-1.93971,-0.27092
9E-06,-1.81591,-0.274799
9.1E-06,-1.68687,-0.278578
9.2E-06,-1.55327,-0.282269
9.3E-06,-1.41579,-0.285886
9.4E-06,-1.27514,-0.289442
9.5E-06,-1.13201,-0.292951
9.6E-06,-0.987069,-0.296424
9.7E-06,-0.841013,-0.299876
9.8E-06,-0.694506,-0.303319
9.9E-06,-0.548208,-0.306766
1E-05,-0.402749,-0.310228
1.01E-05,-0.239281,-3.51164E-07
1.02E-05,-0.0394903,-6.99886E-07
1.03E-05,0.194826,-1.04608E-06
1.04E-05,0.461405,-1.3866E-06
1.05E-05,0.757546,-1.71842E-06
1.06E-05,1.08015,-2.03863E-06
1.07E-05,1.42574,-2.34445E-06
1.08E-05,1.79054,-2.6333E-06
1.09E-05,2.17047,-2.90279E-06
1.1E-05,2.56124,-3.15076E-06
1.11E-05,2.95837,-3.3753E-06
1.12E-05,3.35726,-3.57476E-06
1.13E-05,3.75322,-3.74774E-06
1.14E-05,4.14156,-3.89316E-06
1.15E-05,4.51761,-4.0102E-06
1.16E-05,4.87679,-4.09837E-06
1.17E-05,5.21465,-4.15745E-06
1.18E-05,5.52693,-4.18754E-06
1.19E-05,5.80962,-4.189E-06
1.2E-05,6.05896,-4.16251E-06
1.21E-05,6.27152,-4.10898E-06
1.22E-05,6.44425,-4.02963E-06
1.23E-05,6.57445,-3.92586E-06
1.24E-05,6.65988,-3.79936E-06
1.25E-05,6.69872,-3.65196E-06
1.26E-05,6.68962,-3.48571E-06
1.27E-05,6.63171,-3.30281E-06
1.28E-05,6.5246,-3.10557E-06
1.29E-05,6.3684,-2.89643E-06
1.3E-05,6.1637,-2.67788E-06
1.31E-05,5.91159,-2.45248E-06
1.32E-05,5.61361,-2.22279E-06
1.33E-05,5.27177,-1.99137E-06
1.34E-05,4.88851,-1.76077E-06
1.35E-05,4.46666,-1.53343E-06
1.36E-05,4.00945,-1.31173E-06
1.37E-05,3.52045,-1.09795E-06
1.38E-05,3.00352,-8.94203E-07
1.39E-05,2.4628,-7.02476E-07
1.4E-05,1.90265,-5.24567E-07
1.41E-05,1.32761,-3.62084E-07
1.42E-05,0.742356,-2.1643E-07
1.43E-05,0.151636,-8.87907E-08
1.44E-05,-0.439752,1.98767E-08
1.45E-05,-1.02703,1.0885E-07
1.46E-05,-1.60546,1.77645E-07
1.47E-05,-2.17043,2.2602E-07
1.48E-05,-2.71747,2.53971E-07
1.49E-05,-3.24228,2.61731E-07
1.5E-05,-3.74084,2.49763E-07
1.51E-05,-4.18326,-0.0339356
1.52E-05,-4.59709,-0.0480933
1.53E-05,-4.98138,-0.0616867
1.54E-05,-5.33511,-0.0746962
1.55E-05,-5.6574,-0.0871048
1.56E-05,-5.94752,-0.0988991
1.57E-05,-6.20492,-0.110068
1.58E-05,-6.42919,-0.120605
1.59E-05,-6.62009,-0.130503
1.6E-05,-6.77752,-0.139763
1.61E-05,-6.90153,-0.148384
1.62E-05,-6.99232,-0.15637
1.63E-05,-7.05024,-0.163729
1.64E-05,-7.07576,-0.170469
1.65E-05,-7.06949,-0.176602
1.66E-05,-7.03219,-0.182142
1.67E-05,-6.96469,-0.187105
1.68E-05,-6.86798,-0.19151
1.69E-05,-6.74313,-0.195378
1.7E-05,-6.59133,-0.198731
1.71E-05,-6.41384,-0.201593
1.72E-05,-6.21203,-0.203991
1.73E-05,-5.98733,-0.205952
1.74E-05,-5.74123,-0.207504
1.75E-05,-5.47531,-0.208677
1.76E-05,-5.19118,-0.209502
1.77E-05,-4.89049,-0.210011
1.78E-05,-4.57496,-0.210237
1.79E-05,-4.24629,-0.210211
1.8E-05,-3.90624,-0.209968
1.81E-05,-3.55655,-0.209541
1.82E-05,-3.19898,-0.208963
1.83E-05,-2.8353,-0.208268
1.84E-05,-2.46723,-0.207489
1.85E-05,-2.09651,-0.20666
1.86E-05,-1.72482,-0.205811
1.87E-05,-1.35383,-0.204976
1.88E-05,-0.985144,-0.204185
1.89E-05,-0.620349,-0.203467
1.9E-05,-0.260969,-0.202853
1.91E-05,0.0915365,-0.202369
1.92E-05,0.435766,-0.202044
1.93E-05,0.770385,-0.201901
1.94E-05,1.09413,-0.201966
1.95E-05,1.40583,-0.202261
1.96E-05,1.70436,-0.202806
1.97E-05,1.98871,-0.203622
1.98E-05,2.25794,-0.204727
1.99E-05,2.5112,-0.206136
2E-05,2.74774,-0.207864
2.01E-05,2.97991,-2.35105E-07
2.02E-05,3.2198,-4.68443E-07
2.03E-05,3.46612,-7.00313E-07
2.04E-05,3.71736,-9.28972E-07
2.05E-05,3.97187,-1.15274E-06
2.06E-05,4.2278,-1.36999E-06
2.07E-05,4.48318,-1.5792E-06
2.08E-05,4.73592,-1.77896E-06
2.09E-05,4.98383,-1.96792E-06
2.1E-05,5.22466,-2.14492E-06
2.11E-05,5.45611,-2.30887E-06
2.12E-05,5.67585,-2.45887E-06
2.13E-05,5.88157,-2.59414E-06
2.14E-05,6.071,-2.71405E-06
2.15E-05,6.24193,-2.81814E-06
2.16E-05,6.39223,-2.9061E-06
2.17E-05,6.51989,-2.97777E-06
2.18E-05,6.62302,-3.03316E-06
2.19E-05,6.69992,-3.07242E-06
2.2E-05,6.74905,-3.09586E-06
2.21E-05,6.76906,-3.10391E-06
2.22E-05,6.75884,-3.09715E-06
2.23E-05,6.71748,-3.07628E-06
2.24E-05,6.64434,-3.04213E-06
2.25E-05,6.53901,-2.99561E-06
2.26E-05,6.40136,-2.93773E-06
2.27E-05,6.2315,-2.86958E-06
2.28E-05,6.02983,-2.79234E-06
2.29E-05,5.79698,-2.7072E-06
2.3E-05,5.53389,-2.61541E-06
2.31E-05,5.2417,-2.51826E-06
2.32E-05,4.92184,-2.41702E-06
2.33E-05,4.57594,-2.31298E-06
2.34E-05,4.20587,-2.20739E-06
2.35E-05,3.81371,-2.10149E-06
2.36E-05,3.4017,-1.99647E-06
2.37E-05,2.97227,-1.89346E-06
2.38E-05,2.52798,-1.79351E-06
2.39E-05,2.07153,-1.69763E-06
2.4E-05,1.60571,-1.6067E-06
2.41E-05,1.13337,-1.52153E-06
2.42E-05,0.657427,-1.44283E-06
2.43E-05,0.180823,-1.37119E-06
2.44E-05,-0.293513,-1.30709E-06
2.45E-05,-0.762675,-1.2509E-06
2.46E-05,-1.22381,-1.20288E-06
2.47E-05,-1.67415,-1.16316E-06
2.48E-05,-2.11101,-1.13176E-06
2.49E-05,-2.53185,-1.10858E-06
2.5E-05,-2.93426,-1.09341E-06
2.51E-05,-3.43644,-0.0055728
2.52E-05,-3.91332,-0.0209351
2.53E-05,-4.36227,-0.0357637
2.54E-05,-4.78193,-0.0500329
2.55E-05,-5.17112,-0.0637197
2.56E-05,-5.52879,-0.0768044
2.57E-05,-5.85408,-0.0892704
2.58E-05,-6.14627,-0.101104
2.59E-05,-6.40482,-0.112295
2.6E-05,-6.62933,-0.122836
2.61E-05,-6.81957,-0.132722
2.62E-05,-6.97549,-0.141953
2.63E-05,-7.09714,-0.150529
2.64E-05,-7.18477,-0.158455
2.65E-05,-7.23874,-0.165739
2.66E-05,-7.25958,-0.172389
2.67E-05,-7.24792,-0.178419
2.68E-05,-7.20456,-0.183843
2.69E-05,-7.13038,-0.188679
2.7E-05,-7.0264,-0.192946
2.71E-05,-6.89376,-0.196665
2.72E-05,-6.73366,-0.199859
2.73E-05,-6.54744,-0.202555
2.74E-05,-6.3365,-0.204779
2.75E-05,-6.10233,-0.206559
2.76E-05,-5.84646,-0.207924
2.77E-05,-5.57053,-0.208906
2.78E-05,-5.27619,-0.209537
2.79E-05,-4.96515,-0.209848
2.8E-05,-4.63916,-0.209874
2.81E-05,-4.29999,-0.209648
2.82E-05,-3.94943,-0.209205
2.83E-05,-3.58928,-0.208578
2.84E-05,-3.22134,-0.207802
2.85E-05,-2.84742,-0.206912
2.86E-05,-2.46929,-0.205941
2.87E-05,-2.08872,-0.204924
2.88E-05,-1.70745,-0.203892
2.89E-05,-1.32715,-0.20288
2.9E-05,-0.949493,-0.201917
2.91E-05,-0.576079,-0.201035
2.92E-05,-0.208466,-0.200264
2.93E-05,0.151854,-0.199631
2.94E-05,0.503457,-0.199165
2.95E-05,0.844988,-0.198891
2.96E-05,1.17516,-0.198833
2.97E-05,1.49279,-0.199015
2.98E-05,1.79673,-0.199457
2.99E-05,2.08596,-0.20018
3E-05,2.35954,-0.201202
3.01E-05,2.62921,-2.27197E-07
3.02E-05,2.90638,-4.51952E-07
3.03E-05,3.18954,-6.74563E-07
3.04E-05,3.47695,-8.93366E-07
3.05E-05,3.76675,-1.10676E-06
3.06E-05,4.05691,-1.31322E-06
3.07E-05,4.34528,-1.51133E-06
3.08E-05,4.62963,-1.69976E-06
3.09E-05,4.90765,-1.8773E-06
3.1E-05,5.17697,-2.04287E-06
3.11E-05,5.43521,-2.19553E-06
3.12E-05,5.67999,-2.33447E-06
3.13E-05,5.90896,-2.45904E-06
3.14E-05,6.11983,-2.56872E-06
3.15E-05,6.3104,-2.66315E-06
3.16E-05,6.47855,-2.74214E-06
3.17E-05,6.62232,-2.80563E-06
3.18E-05,6.7399,-2.85371E-06
3.19E-05,6.82963,-2.88662E-06
3.2E-05,6.89009,-2.90475E-06
3.21E-05,6.92003,-2.9086E-06
3.22E-05,6.91843,-2.89882E-06
3.23E-05,6.88454,-2.87614E-06
3.24E-05,6.81782,-2.84142E-06
3.25E-05,6.71802,-2.79561E-06
3.26E-05,6.58514,-2.73973E-06
3.27E-05,6.41942,-2.67488E-06
3.28E-05,6.22141,-2.6022E-06
3.29E-05,5.99188,-2.52288E-06
3.3E-05,5.73189,-2.43813E-06
3.31E-05,5.44271,-2.34919E-06
3.32E-05,5.12589,-2.25729E-06
3.33E-05,4.78316,-2.16363E-06
3.34E-05,4.41649,-2.0694E-06
3.35E-05,4.02804,-1.97574E-06
3.36E-05,3.62013,-1.88376E-06
3.37E-05,3.19523,-1.79448E-06
3.38E-05,2.75597,-1.70886E-06
3.39E-05,2.30505,-1.62778E-06
3.4E-05,1.84527,-1.55202E-06
3.41E-05,1.3795,-1.48227E-06
3.42E-05,0.910624,-1.41912E-06
3.43E-05,0.441546,-1.36303E-06
3.44E-05,-0.0248502,-1.31438E-06
3.45E-05,-0.485722,-1.27342E-06
3.46E-05,-0.938293,-1.24029E-06
3.47E-05,-1.37988,-1.21501E-06
3.48E-05,-1.8079,-1.1975E-06
3.49E-05,-2.21992,-1.18756E-06
3.5E-05,-2.61364,-1.1849E-06
3.51E-05,-3.11816,-0.0164467
3.52E-05,-3.59881,-0.0318802
3.53E-05,-4.05284,-0.046805
3.54E-05,-4.47884,-0.0611941
3.55E-05,-4.87556,-0.0750237
3.56E-05,-5.2419,-0.0882729
3.57E-05,-5.57692,-0.100924
3.58E-05,-5.87985,-0.112962
3.59E-05,-6.15008,-0.124375
3.6E-05,-6.38713,-0.135154
3.61E-05,-6.5907,-0.145294
3.62E-05,-6.76065,-0.154791
3.63E-05,-6.89697,-0.163646
3.64E-05,-6.99983,-0.171862
3.65E-05,-7.0695,-0.179444
3.66E-05,-7.10644,-0.186401
3.67E-05,-7.11119,-0.192743
3.68E-05,-7.08448,-0.198484
3.69E-05,-7.0271,-0.20364
3.7E-05,-6.94001,-0.208228
3.71E-05,-6.82425,-0.212268
3.72E-05,-6.68098,-0.215783
3.73E-05,-6.51144,-0.218796
3.74E-05,-6.31696,-0.221333
3.75E-05,-6.09896,-0.22342
3.76E-05,-5.85893,-0.225087
3.77E-05,-5.59842,-0.226362
3.78E-05,-5.31903,-0.227277
3.79E-05,-5.02242,-0.227863
3.8E-05,-4.71029,-0.228152
3.81E-05,-4.38435,-0.228178
3.82E-05,-4.04636,-0.227973
3.83E-05,-3.69807,-0.227572
3.84E-05,-3.34125,-0.227007
3.85E-05,-2.97766,-0.226313
3.86E-05,-2.60906,-0.225523
3.87E-05,-2.23719,-0.22467
3.88E-05,-1.86376,-0.223788
3.89E-05,-1.49045,-0.222907
3.9E-05,-1.1189,-0.22206
3.91E-05,-0.750719,-0.221277
3.92E-05,-0.387444,-0.220587
3.93E-05,-0.0305774,-0.22002
3.94E-05,0.318454,-0.219601
3.95E-05,0.658287,-0.219358
3.96E-05,0.987627,-0.219315
3.97E-05,1.30526,-0.219496
3.98E-05,1.61004,-0.219921
3.99E-05,1.90091,-0.220612
4E-05,2.17691,-0.221586
4.01E-05,2.45102,-2.50106E-07
4.02E-05,2.73585,-4.97278E-07
4.03E-05,3.02972,-7.41794E-07
4.04E-05,3.33071,-9.81771E-07
4.05E-05,3.63675,-1.2154E-06
4.06E-05,3.94555,-1.44098E-06
4.07E-05,4.2547,-1.65688E-06
4.08E-05,4.56167,-1.86162E-06
4.09E-05,4.86384,-2.05384E-06
4.1E-05,5.1585,-2.23234E-06
4.11E-05,5.44293,-2.39605E-06
4.12E-05,5.71442,-2.54407E-06
4.13E-05,5.97024,-2.67569E-06
4.14E-05,6.20776,-2.79033E-06
4.15E-05,6.42443,-2.88762E-06
4.16E-05,6.6178,-2.96734E-06
4.17E-05,6.78558,-3.02946E-06
4.18E-05,6.92564,-3.07412E-06
4.19E-05,7.03605,-3.10161E-06
4.2E-05,7.11508,-3.11239E-06
4.21E-05,7.16127,-3.10708E-06
4.22E-05,7.17338,-3.08642E-06
4.23E-05,7.15045,-3.05129E-06
4.24E-05,7.09182,-3.0027E-06
4.25E-05,6.99709,-2.94175E-06
4.26E-05,6.86618,-2.86963E-06
4.27E-05,6.69929,-2.78762E-06
4.28E-05,6.49693,-2.69706E-06
4.29E-05,6.25992,-2.59932E-06
4.3E-05,5.98934,-2.49581E-06
4.31E-05,5.68658,-2.38796E-06
4.32E-05,5.35329,-2.2772E-06
4.33E-05,4.99137,-2.16492E-06
4.34E-05,4.60297,-2.0525E-06
4.35E-05,4.19044,-1.94127E-06
4.36E-05,3.75635,-1.83248E-06
4.37E-05,3.30345,-1.72733E-06
4.38E-05,2.8346,-1.62693E-06
4.39E-05,2.35283,-1.53228E-06
4.4E-05,1.86125,-1.44428E-06
4.41E-05,1.36302,-1.36374E-06
4.42E-05,0.861364,-1.29131E-06
4.43E-05,0.35951,-1.22755E-06
4.44E-05,-0.139334,-1.17286E-06
4.45E-05,-0.632005,-1.12754E-06
4.46E-05,-1.11541,-1.09173E-06
4.47E-05,-1.58657,-1.06545E-06
4.48E-05,-2.0426,-1.04861E-06
4.49E-05,-2.48081,-1.04095E-06
4.5E-05,-2.89865,-1.04214E-06
4.51E-05,-3.40946,-0.0206928
4.52E-05,-3.89484,-0.0362165
4.53E-05,-4.35219,-0.0512045
4.54E-05,-4.78011,-0.0656302
4.55E-05,-5.17738,-0.0794703
4.56E-05,-5.54292,-0.0927043
4.57E-05,-5.87584,-0.105315
4.58E-05,-6.1754,-0.117288
4.59E-05,-6.44102,-0.128613
4.6E-05,-6.67229,-0.139282
4.61E-05,-6.86895,-0.14929
4.62E-05,-7.03091,-0.158635
4.63E-05,-7.15824,-0.167319
4.64E-05,-7.25115,-0.175345
4.65E-05,-7.30999,-0.18272
4.66E-05,-7.33527,-0.189454
4.67E-05,-7.32763,-0.19556
4.68E-05,-7.28783,-0.201051
4.69E-05,-7.21677,-0.205945
4.7E-05,-7.11547,-0.210262
4.71E-05,-6.98504,-0.214022
4.72E-05,-6.82672,-0.21725
4.73E-05,-6.64181,-0.21997
4.74E-05,-6.43175,-0.222209
4.75E-05,-6.198,-0.223996
4.76E-05,-5.94214,-0.22536
4.77E-05,-5.66578,-0.226333
4.78E-05,-5.37061,-0.226947
4.79E-05,-5.05834,-0.227234
4.8E-05,-4.73073,-0.227228
4.81E-05,-4.38958,-0.226963
4.82E-05,-4.03669,-0.226474
4.83E-05,-3.67388,-0.225796
4.84E-05,-3.30296,-0.224962
4.85E-05,-2.92577,-0.224008
4.86E-05,-2.5441,-0.222969
4.87E-05,-2.15974,-0.221878
4.88E-05,-1.77444,-0.220769
4.89E-05,-1.38991,-0.219675
4.9E-05,-1.00784,-0.218627
4.91E-05,-0.629866,-0.217657
4.92E-05,-0.257551,-0.216795
4.93E-05,0.107587,-0.216069
4.94E-05,0.464094,-0.215508
4.95E-05,0.810595,-0.215138
4.96E-05,1.14578,-0.214984
4.97E-05,1.46843,-0.215069
4.98E-05,1.77739,-0.215414
4.99E-05,2.07162,-0.216041
5E-05,2.35014,-0.216967
5.01E-05,2.62567,-2.44888E-07
5.02E-05,2.91054,-4.86909E-07
5.03E-05,3.2031,-7.26359E-07
5.04E-05,3.50149,-9.61421E-07
5.05E-05,3.80369,-1.19035E-06
5.06E-05,4.1075,-1.41149E-06
5.07E-05,4.41058,-1.62328E-06
5.08E-05,4.71049,-1.82428E-06
5.09E-05,5.0047,-2.01319E-06
5.1E-05,5.29062,-2.18883E-06
5.11E-05,5.56563,-2.35019E-06
5.12E-05,5.82713,-2.49639E-06
5.13E-05,6.07252,-2.62672E-06
5.14E-05,6.29928,-2.74065E-06
5.15E-05,6.50498,-2.83781E-06
5.16E-05,6.68728,-2.91799E-06
5.17E-05,6.84402,-2.98114E-06
5.18E-05,6.97318,-3.02741E-06
5.19E-05,7.07292,-3.05706E-06
5.2E-05,7.14164,-3.07054E-06
5.21E-05,7.17796,-3.06843E-06
5.22E-05,7.18073,-3.05145E-06
5.23E-05,7.14908,-3.02044E-06
5.24E-05,7.0824,-2.97636E-06
5.25E-05,6.98037,-2.92027E-06
5.26E-05,6.84296,-2.8533E-06
5.27E-05,6.6704,-2.7767E-06
5.28E-05,6.46325,-2.69172E-06
5.29E-05,6.22232,-2.5997E-06
5.3E-05,5.94873,-2.50198E-06
5.31E-05,5.64385,-2.39993E-06
5.32E-05,5.30932,-2.29492E-06
5.33E-05,4.94702,-2.18829E-06
5.34E-05,4.55906,-2.08135E-06
5.35E-05,4.14776,-1.97538E-06
5.36E-05,3.71564,-1.87158E-06
5.37E-05,3.26537,-1.7711E-06
5.38E-05,2.79977,-1.67499E-06
5.39E-05,2.32178,-1.58423E-06
5.4E-05,1.83444,-1.49968E-06
5.41E-05,1.34084,-1.42209E-06
5.42E-05,0.844111,-1.35211E-06
5.43E-05,0.347389,-1.29026E-06
5.44E-05,-0.1462,-1.23694E-06
5.45E-05,-0.633581,-1.19242E-06
5.46E-05,-1.11175,-1.15686E-06
5.47E-05,-1.57781,-1.13026E-06
5.48E-05,-2.02897,-1.11253E-06
5.49E-05,-2.4626,-1.10344E-06
5.5E-05,-2.87622,-1.10266E-06
5.51E-05,-3.38983,-0.0187552
5.52E-05,-3.87809,-0.034334
5.53E-05,-4.33833,-0.0493773
5.54E-05,-4.76914,-0.0638582
5.55E-05,-5.16927,-0.0777531
5.56E-05,-5.53766,-0.0910414
5.57E-05,-5.87338,-0.103706
5.58E-05,-6.17569,-0.115732
5.59E-05,-6.44399,-0.127108
5.6E-05,-6.67787,-0.137827
5.61E-05,-6.87707,-0.147883
5.62E-05,-7.04147,-0.157275
5.63E-05,-7.17113,-0.166003
5.64E-05,-7.26627,-0.174071
5.65E-05,-7.32722,-0.181487
5.66E-05,-7.35449,-0.188259
5.67E-05,-7.3487,-0.194401
5.68E-05,-7.31063,-0.199925
5.69E-05,-7.24116,-0.20485
5.7E-05,-7.1413,-0.209194
5.71E-05,-7.01216,-0.212979
5.72E-05,-6.85498,-0.216228
5.73E-05,-6.67108,-0.218967
5.74E-05,-6.46186,-0.221223
5.75E-05,-6.22881,-0.223023
5.76E-05,-5.97349,-0.224398
5.77E-05,-5.69752,-0.225379
5.78E-05,-5.40259,-0.225997
5.79E-05,-5.09042,-0.226286
5.8E-05,-4.76277,-0.226279
5.81E-05,-4.42143,-0.226011
5.82E-05,-4.06822,-0.225516
5.83E-05,-3.70495,-0.224829
5.84E-05,-3.33345,-0.223984
5.85E-05,-2.95556,-0.223017
5.86E-05,-2.57306,-0.221962
5.87E-05,-2.18776,-0.220853
5.88E-05,-1.80143,-0.219725
5.89E-05,-1.41577,-0.218609
5.9E-05,-1.03248,-0.217538
5.91E-05,-0.653204,-0.216543
5.92E-05,-0.279516,-0.215655
5.93E-05,0.0870575,-0.214902
5.94E-05,0.445062,-0.214313
5.95E-05,0.793109,-0.213913
5.96E-05,1.12988,-0.213729
5.97E-05,1.45415,-0.213782
5.98E-05,1.76477,-0.214097
5.99E-05,2.06066,-0.214692
6E-05,2.34086,-0.215586
6.01E-05,2.61799,-2.43315E-07
6.02E-05,2.90428,-4.83755E-07
6.03E-05,3.19807,-7.21619E-07
6.04E-05,3.49753,-9.55103E-07
6.05E-05,3.8006,-1.18248E-06
6.06E-05,4.10511,-1.4021E-06
6.07E-05,4.40871,-1.61242E-06
6.08E-05,4.70899,-1.81203E-06
6.09E-05,5.0034,-1.99962E-06
6.1E-05,5.28939,-2.17404E-06
6.11E-05,5.56434,-2.33427E-06
6.12E-05,5.82567,-2.47946E-06
6.13E-05,6.07079,-2.60891E-06
6.14E-05,6.29721,-2.72209E-06
6.15E-05,6.5025,-2.81863E-06
6.16E-05,6.68436,-2.89833E-06
6.17E-05,6.84063,-2.96116E-06
6.18E-05,6.96932,-3.00725E-06
6.19E-05,7.06861,-3.03687E-06
6.2E-05,7.13691,-3.05048E-06
6.21E-05,7.17286,-3.04864E-06
6.22E-05,7.17533,-3.03208E-06
6.23E-05,7.14347,-3.00163E-06
6.24E-05,7.07668,-2.95824E-06
6.25E-05,6.97465,-2.90297E-06
6.26E-05,6.83736,-2.83695E-06
6.27E-05,6.66506,-2.76139E-06
6.28E-05,6.45831,-2.67756E-06
6.29E-05,6.21793,-2.58678E-06
6.3E-05,5.94503,-2.49038E-06
6.31E-05,5.641,-2.38972E-06
6.32E-05,5.30746,-2.28614E-06
6.33E-05,4.9463,-2.18098E-06
6.34E-05,4.55963,-2.07554E-06
6.35E-05,4.14976,-1.97108E-06
6.36E-05,3.71919,-1.86879E-06
6.37E-05,3.27059,-1.7698E-06
6.38E-05,2.80676,-1.67516E-06
6.39E-05,2.33064,-1.58582E-06
6.4E-05,1.84525,-1.50264E-06
6.41E-05,1.35364,-1.42636E-06
6.42E-05,0.858954,-1.35762E-06
6.43E-05,0.364297,-1.29693E-06
6.44E-05,-0.127225,-1.24467E-06
6.45E-05,-0.612556,-1.20112E-06
6.46E-05,-1.08871,-1.16641E-06
6.47E-05,-1.55281,-1.14057E-06
6.48E-05,-2.00209,-1.12348E-06
6.49E-05,-2.43393,-1.11492E-06
6.5E-05,-2.84588,-1.11455E-06
6.51E-05,-3.35929,-0.019063
6.52E-05,-3.84749,-0.0346406
6.53E-05,-4.3078,-0.0496853
6.54E-05,-4.73882,-0.0641702
6.55E-05,-5.1393,-0.0780716
6.56E-05,-5.50815,-0.0913688
6.57E-05,-5.84446,-0.104044
6.58E-05,-6.14747,-0.116083
6.59E-05,-6.41658,-0.127475
6.6E-05,-6.65137,-0.138211
6.61E-05,-6.85157,-0.148287
6.62E-05,-7.01707,-0.157699
6.63E-05,-7.14792,-0.16645
6.64E-05,-7.24431,-0.174543
6.65E-05,-7.30659,-0.181984
6.66E-05,-7.33524,-0.188782
6.67E-05,-7.3309,-0.194951
6.68E-05,-7.29431,-0.200503
6.69E-05,-7.22636,-0.205457
6.7E-05,-7.12806,-0.209831
6.71E-05,-7.00051,-0.213646
6.72E-05,-6.84493,-0.216926
6.73E-05,-6.66263,-0.219696
6.74E-05,-6.45501,-0.221982
6.75E-05,-6.22356,-0.223813
6.76E-05,-5.96983,-0.225218
6.77E-05,-5.69544,-0.226229
6.78E-05,-5.40205,-0.226876
6.79E-05,-5.09139,-0.227194
6.8E-05,-4.76521,-0.227215
6.81E-05,-4.4253,-0.226974
6.82E-05,-4.07347,-0.226505
6.83E-05,-3.71152,-0.225843
6.84E-05,-3.3413,-0.225023
6.85E-05,-2.96461,-0.224079
6.86E-05,-2.58326,-0.223046
6.87E-05,-2.19903,-0.221957
6.88E-05,-1.81368,-0.220847
6.89E-05,-1.42894,-0.219749
6.9E-05,-1.0465,-0.218694
6.91E-05,-0.667975,-0.217714
6.92E-05,-0.294961,-0.216838
6.93E-05,0.0710187,-0.216097
6.94E-05,0.428512,-0.215517
6.95E-05,0.776132,-0.215126
6.96E-05,1.11257,-0.214948
6.97E-05,1.43658,-0.215006
6.98E-05,1.74702,-0.215324
6.99E-05,2.04283,-0.21592
7E-05,2.32301,-0.216815
7.01E-05,2.60029,-2.44697E-07
7.02E-05,2.88695,-4.86493E-07
7.03E-05,3.18133,-7.25682E-07
7.04E-05,3.48158,-9.60448E-07
7.05E-05,3.78565,-1.18905E-06
7.06E-05,4.09132,-1.40983E-06
7.07E-05,4.39625,-1.62123E-06
7.08E-05,4.69799,-1.82182E-06
7.09E-05,4.994,-2.0103E-06
7.1E-05,5.28167,-2.18549E-06
7.11E-05,5.55838,-2.34638E-06
7.12E-05,5.82152,-2.4921E-06
7.13E-05,6.06849,-2.62196E-06
7.14E-05,6.29676,-2.73542E-06
7.15E-05,6.50389,-2.8321E-06
7.16E-05,6.68755,-2.91181E-06
7.17E-05,6.84556,-2.97452E-06
7.18E-05,6.9759,-3.02036E-06
7.19E-05,7.07675,-3.04961E-06
7.2E-05,7.14649,-3.06272E-06
7.21E-05,7.18374,-3.06027E-06
7.22E-05,7.18736,-3.04299E-06
7.23E-05,7.15648,-3.01172E-06
7.24E-05,7.0905,-2.96743E-06
7.25E-05,6.98909,-2.91117E-06
7.26E-05,6.85223,-2.84409E-06
7.27E-05,6.68017,-2.76742E-06
7.28E-05,6.47345,-2.68244E-06
7.29E-05,6.23291,-2.59047E-06
7.3E-05,5.95965,-2.49286E-06
7.31E-05,5.65507,-2.39097E-06
7.32E-05,5.3208,-2.28618E-06
7.33E-05,4.95873,-2.17983E-06
7.34E-05,4.57098,-2.07322E-06
7.35E-05,4.15987,-1.96763E-06
7.36E-05,3.72793,-1.86427E-06
7.37E-05,3.27783,-1.76427E-06
7.38E-05,2.8124,-1.66869E-06
7.39E-05,2.33459,-1.57849E-06
7.4E-05,1.84742,-1.49454E-06
7.41E-05,1.354,-1.41758E-06
7.42E-05,0.857467,-1.34827E-06
7.43E-05,0.360952,-1.2871E-06
7.44E-05,-0.132418,-1.23448E-06
7.45E-05,-0.619566,-1.19068E-06
7.46E-05,-1.09749,-1.15583E-06
7.47E-05,-1.56329,-1.12996E-06
7.48E-05,-2.01418,-1.11294E-06
7.49E-05,-2.44753,-1.10457E-06
7.5E-05,-2.86087,-1.10449E-06
7.51E-05,-3.37444,-0.0193701
7.52E-05,-3.86272,-0.0349493
7.53E-05,-4.32305,-0.0499943
7.54E-05,-4.75401,-0.0644781
7.55E-05,-5.15437,-0.0783772
7.56E-05,-5.52304,-0.0916708
7.57E-05,-5.8591,-0.104342
7.58E-05,-6.1618,-0.116375
7.59E-05,-6.43055,-0.12776
7.6E-05,-6.66493,-0.138488
7.61E-05,-6.86466,-0.148555
7.62E-05,-7.02965,-0.157957
7.63E-05,-7.15994,-0.166697
7.64E-05,-7.25573,-0.174778
7.65E-05,-7.31738,-0.182207
7.66E-05,-7.34536,-0.188993
7.67E-05,-7.34032,-0.195148
7.68E-05,-7.30301,-0.200687
7.69E-05,-7.23432,-0.205627
7.7E-05,-7.13525,-0.209986
7.71E-05,-7.00692,-0.213786
7.72E-05,-6.85055,-0.217051
7.73E-05,-6.66745,-0.219806
7.74E-05,-6.45904,-0.222077
7.75E-05,-6.22678,-0.223892
7.76E-05,-5.97226,-0.225282
7.77E-05,-5.69707,-0.226278
7.78E-05,-5.40291,-0.22691
7.79E-05,-5.09148,-0.227214
7.8E-05,-4.76455,-0.227221
7.81E-05,-4.42391,-0.226966
7.82E-05,-4.07137,-0.226483
7.83E-05,-3.70875,-0.225808
7.84E-05,-3.33787,-0.224975
7.85E-05,-2.96055,-0.224019
7.86E-05,-2.57861,-0.222975
7.87E-05,-2.19383,-0.221876
7.88E-05,-1.80796,-0.220756
7.89E-05,-1.42273,-0.219648
7.9E-05,-1.03984,-0.218585
7.91E-05,-0.660913,-0.217597
7.92E-05,-0.287533,-0.216714
7.93E-05,0.0787748,-0.215967
7.94E-05,0.436555,-0.215381
7.95E-05,0.78442,-0.214985
7.96E-05,1.12106,-0.214803
7.97E-05,1.44523,-0.214859
7.98E-05,1.75579,-0.215174
7.99E-05,2.05167,-0.215769
8E-05,2.3319,-0.216663
8.01E-05,2.60916,-2.44527E-07
8.02E-05,2.89575,-4.86155E-07
8.03E-05,3.19001,-7.25181E-07
8.04E-05,3.49008,-9.59791E-07
8.05E-05,3.79391,-1.18824E-06
8.06E-05,4.09931,-1.40889E-06
8.07E-05,4.40392,-1.62017E-06
8.08E-05,4.7053,-1.82065E-06
8.09E-05,5.00091,-2.00903E-06
8.1E-05,5.28815,-2.18415E-06
8.11E-05,5.56442,-2.34499E-06
8.12E-05,5.82708,-2.49067E-06
8.13E-05,6.07356,-2.62051E-06
8.14E-05,6.30133,-2.73397E-06
8.15E-05,6.50794,-2.83068E-06
8.16E-05,6.69109,-2.91045E-06
8.17E-05,6.84859,-2.97322E-06
8.18E-05,6.97843,-3.01915E-06
8.19E-05,7.07878,-3.0485E-06
8.2E-05,7.14804,-3.06174E-06
8.21E-05,7.18483,-3.05943E-06
8.22E-05,7.18802,-3.0423E-06
8.23E-05,7.15673,-3.01121E-06
8.24E-05,7.09036,-2.96709E-06
8.25E-05,6.9886,-2.91103E-06
8.26E-05,6.85142,-2.84415E-06
8.27E-05,6.67906,-2.76769E-06
8.28E-05,6.47209,-2.68291E-06
8.29E-05,6.23133,-2.59115E-06
8.3E-05,5.95789,-2.49376E-06
8.31E-05,5.65316,-2.39208E-06
8.32E-05,5.31878,-2.2875E-06
8.33E-05,4.95663,-2.18134E-06
8.34E-05,4.56883,-2.07492E-06
8.35E-05,4.15771,-1.96951E-06
8.36E-05,3.72578,-1.86631E-06
8.37E-05,3.27572,-1.76646E-06
8.38E-05,2.81035,-1.67101E-06
8.39E-05,2.33263,-1.58093E-06
8.4E-05,1.84556,-1.49707E-06
8.41E-05,1.35227,-1.42019E-06
8.42E-05,0.855861,-1.35093E-06
8.43E-05,0.359487,-1.2898E-06
8.44E-05,-0.133737,-1.23719E-06
8.45E-05,-0.620737,-1.19337E-06
8.46E-05,-1.09851,-1.15849E-06
8.47E-05,-1.56417,-1.13256E-06
8.48E-05,-2.01492,-1.11548E-06
8.49E-05,-2.44814,-1.10701E-06
8.5E-05,-2.86137,-1.10681E-06
8.51E-05,-3.37508,-0.0192605
8.52E-05,-3.86351,-0.0348424
8.53E-05,-4.32397,-0.04989
8.54E-05,-4.75507,-0.0643763
8.55E-05,-5.15554,-0.0782777
8.56E-05,-5.52433,-0.0915735
8.57E-05,-5.86049,-0.104246
8.58E-05,-6.16329,-0.116282
8.59E-05,-6.43213,-0.127668
8.6E-05,-6.66659,-0.138398
8.61E-05,-6.86639,-0.148466
8.62E-05,-7.03144,-0.15787
8.63E-05,-7.16178,-0.166611
8.64E-05,-7.25762,-0.174693
8.65E-05,-7.31929,-0.182122
8.66E-05,-7.34731,-0.188909
8.67E-05,-7.34228,-0.195064
8.68E-05,-7.30498,-0.200603
8.69E-05,-7.23628,-0.205542
8.7E-05,-7.1372,-0.209902
8.71E-05,-7.00885,-0.213702
8.72E-05,-6.85245,-0.216966
8.73E-05,-6.66932,-0.21972
8.74E-05,-6.46086,-0.22199
8.75E-05,-6.22856,-0.223804
8.76E-05,-5.97398,-0.225193
8.77E-05,-5.69873,-0.226187
8.78E-05,-5.40449,-0.226819
8.79E-05,-5.09299,-0.227121
8.8E-05,-4.76599,-0.227126
8.81E-05,-4.42527,-0.22687
8.82E-05,-4.07264,-0.226386
8.83E-05,-3.70992,-0.225709
8.84E-05,-3.33894,-0.224874
8.85E-05,-2.96153,-0.223916
8.86E-05,-2.57949,-0.22287
8.87E-05,-2.1946,-0.221769
8.88E-05,-1.80863,-0.220647
8.89E-05,-1.42331,-0.219538
8.9E-05,-1.04031,-0.218472
8.91E-05,-0.661282,-0.217482
8.92E-05,-0.287801,-0.216598
8.93E-05,0.0786091,-0.215848
8.94E-05,0.436489,-0.215261
8.95E-05,0.784451,-0.214863
8.96E-05,1.12118,-0.214679
8.97E-05,1.44545,-0.214733
8.98E-05,1.7561,-0.215047
8.99E-05,2.05207,-0.21564
9E-05,2.33238,-0.216532
9.01E-05,2.60971,-2.44379E-07
9.02E-05,2.89635,-4.8586E-07
9.03E-05,3.19064,-7.24741E-07
9.04E-05,3.49072,-9.59208E-07
9.05E-05,3.79455,-1.18752E-06
9.06E-05,4.09991,-1.40803E-06
9.07E-05,4.40448,-1.61918E-06
9.08E-05,4.70581,-1.81955E-06
9.09E-05,5.00134,-2.00782E-06
9.1E-05,5.2885,-2.18284E-06
9.11E-05,5.56467,-2.34359E-06
9.12E-05,5.82723,-2.4892E-06
9.13E-05,6.0736,-2.61897E-06
9.14E-05,6.30126,-2.73238E-06
9.15E-05,6.50776,-2.82906E-06
9.16E-05,6.69079,-2.90879E-06
9.17E-05,6.84818,-2.97156E-06
9.18E-05,6.97791,-3.01749E-06
9.19E-05,7.07816,-3.04686E-06
9.2E-05,7.14733,-3.06013E-06
9.21E-05,7.18403,-3.05787E-06
9.22E-05,7.18714,-3.0408E-06
9.23E-05,7.15579,-3.00977E-06
9.24E-05,7.08937,-2.96574E-06
9.25E-05,6.98758,-2.90976E-06
9.26E-05,6.85038,-2.84299E-06
9.27E-05,6.67803,-2.76663E-06
9.28E-05,6.47107,-2.68197E-06
9.29E-05,6.23035,-2.59034E-06
9.3E-05,5.95696,-2.49307E-06
9.31E-05,5.6523,-2.39152E-06
9.32E-05,5.318,-2.28707E-06
9.33E-05,4.95595,-2.18104E-06
9.34E-05,4.56827,-2.07476E-06
9.35E-05,4.15728,-1.96948E-06
9.36E-05,3.7255,-1.86641E-06
9.37E-05,3.2756,-1.76668E-06
9.38E-05,2.8104,-1.67135E-06
9.39E-05,2.33285,-1.58138E-06
9.4E-05,1.84598,-1.49763E-06
9.41E-05,1.35287,-1.42085E-06
9.42E-05,0.856659,-1.35168E-06
9.43E-05,0.360481,-1.29063E-06
9.44E-05,-0.132547,-1.23809E-06
9.45E-05,-0.619353,-1.19434E-06
9.46E-05,-1.09694,-1.15951E-06
9.47E-05,-1.56241,-1.13362E-06
9.48E-05,-2.01299,-1.11656E-06
9.49E-05,-2.44605,-1.1081E-06
9.5E-05,-2.85912,-1.10791E-06
9.51E-05,-3.37281,-0.0192596
9.52E-05,-3.86124,-0.0348414
9.53E-05,-4.3217,-0.049889
9.54E-05,-4.75281,-0.0643756
9.55E-05,-5.15331,-0.0782774
9.56E-05,-5.52213,-0.0915739
9.57E-05,-5.85833,-0.104247
9.58E-05,-6.16118,-0.116284
9.59E-05,-6.43008,-0.127671
9.6E-05,-6.6646,-0.138402
9.61E-05,-6.86448,-0.148472
9.62E-05,-7.02961,-0.157877
9.63E-05,-7.16004,-0.16662
9.64E-05,-7.25596,-0.174703
9.65E-05,-7.31774,-0.182135
9.66E-05,-7.34585,-0.188923
9.67E-05,-7.34093,-0.195081
9.68E-05,-7.30374,-0.200622
9.69E-05,-7.23516,-0.205563
9.7E-05,-7.13619,-0.209925
9.71E-05,-7.00796,-0.213727
9.72E-05,-6.85168,-0.216993
9.73E-05,-6.66867,-0.219749
9.74E-05,-6.46033,-0.222022
9.75E-05,-6.22815,-0.223839
9.76E-05,-5.97368,-0.22523
9.77E-05,-5.69855,-0.226226
9.78E-05,-5.40443,-0.22686
9.79E-05,-5.09304,-0.227164
9.8E-05,-4.76614,-0.227172
9.81E-05,-4.42553,-0.226917
9.82E-05,-4.073,-0.226435
9.83E-05,-3.71039,-0.22576
9.84E-05,-3.3395,-0.224927
9.85E-05,-2.96218,-0.223971
9.86E-05,-2.58022,-0.222926
9.87E-05,-2.19542,-0.221827
9.88E-05,-1.80952,-0.220706
9.89E-05,-1.42426,-0.219598
9.9E-05,-1.04132,-0.218534
9.91E-05,-0.662348,-0.217545
9.92E-05,-0.28892,-0.216661
9.93E-05,0.0774438,-0.215913
9.94E-05,0.435284,-0.215326
9.95E-05,0.783213,-0.214929
9.96E-05,1.11992,-0.214746
9.97E-05,1.44416,-0.2148
9.98E-05,1.7548,-0.215114
9.99E-05,2.05075,-0.215708
0.0001,2.33106,-0.2166
